Trace
Swept SA
A.12.15,N9000A
507 ,01
Segment,0
Number of Points,1001
Sweep Time,0.1682
Start Frequency,1500000
Stop Frequency,2000000
Average Count,0
Average Type,LogPower(Video)
RBW,30
RBW Filter,Gaussian
RBW Filter BW,3dB
VBW,30
Sweep Type,Fft
X Axis Scale,Lin
PreAmp State,Off
PreAmp Band,Low
Trigger Source,Free
Trigger Level,1.2
Trigger Slope,Positive
Trigger Delay,0
Phase Noise Optimization,Narrow
Swept If Gain,Low
FFT If Gain,Autorange
RF Coupling,AC
FFT Width,411900
Ext Ref,10000000
Input,RF
RF Calibrator,Off
Attenuation,0
Ref Level Offset,0
External Gain,0
Trace Type,Average
Detector,Sample
Trace Math,Off
Trace Math Oper1,Trace5
Trace Math Oper2,Trace6
Trace Math Offset,0
Trace Name,Trace1
X Axis Units,Hz
Y Axis Units,dBm
DATA
1500000,-128.482756342029
1500500,-128.633591829004
1501000,-128.699814086852
1501500,-127.795831521411
1502000,-128.727282994115
1502500,-127.793859319179
1503000,-128.752239448712
1503500,-128.241241157917
1504000,-128.054010359006
1504500,-127.742213480435
1505000,-128.868793062858
1505500,-127.650961126493
1506000,-128.784745935432
1506500,-128.381117040529
1507000,-127.870258202168
1507500,-127.620962476532
1508000,-127.933999689251
1508500,-127.925996911015
1509000,-128.887679248519
1509500,-128.510504111937
1510000,-129.168504122319
1510500,-128.706210412085
1511000,-128.43117217494
1511500,-127.641286620255
1512000,-128.117946486966
1512500,-127.440769832511
1513000,-127.712677637099
1513500,-127.84055229656
1514000,-127.930545834088
1514500,-127.554165879823
1515000,-128.260885014554
1515500,-126.003371843118
1516000,-124.373579800381
1516500,-125.382640888671
1517000,-126.693303957452
1517500,-127.115196411636
1518000,-127.93451806457
1518500,-127.043467507495
1519000,-128.005251195361
1519500,-127.309049215365
1520000,-126.898935747166
1520500,-125.170264477948
1521000,-121.162122786599
1521500,-118.792444112594
1522000,-119.787276549793
1522500,-123.032798941798
1523000,-125.358401910463
1523500,-127.031365628649
1524000,-126.926529621072
1524500,-128.155729043572
1525000,-128.030671756254
1525500,-127.384984243636
1526000,-128.541826005989
1526500,-128.199576919274
1527000,-128.254198715337
1527500,-128.442076987023
1528000,-127.940598202786
1528500,-128.508924683678
1529000,-127.88436336829
1529500,-128.432539296274
1530000,-128.760857159395
1530500,-128.639863854072
1531000,-128.007636369901
1531500,-128.674480208289
1532000,-127.582795622708
1532500,-127.024872113531
1533000,-127.252185294794
1533500,-127.938532351887
1534000,-128.391574287782
1534500,-128.182526485348
1535000,-128.429623198124
1535500,-127.883101950143
1536000,-128.38823123607
1536500,-128.197057870908
1537000,-128.86873241951
1537500,-128.93145868902
1538000,-128.428589416484
1538500,-128.306918910857
1539000,-128.605933912851
1539500,-128.516627860044
1540000,-128.316282767984
1540500,-128.180603029024
1541000,-128.769180088302
1541500,-128.317615156177
1542000,-128.159650013143
1542500,-128.76505803312
1543000,-128.598145487314
1543500,-128.264790012765
1544000,-127.141994755655
1544500,-128.212517316732
1545000,-127.72635196837
1545500,-125.123917935096
1546000,-123.910496560657
1546500,-125.976039811811
1547000,-127.506929758084
1547500,-128.603027213329
1548000,-128.673225537423
1548500,-128.335277380676
1549000,-128.545373551947
1549500,-128.534930900316
1550000,-128.45707872895
1550500,-129.318493534719
1551000,-128.145950435441
1551500,-128.880772855133
1552000,-128.98492955675
1552500,-128.611709450648
1553000,-128.579471058954
1553500,-128.270103426845
1554000,-129.323382096662
1554500,-128.800368415587
1555000,-128.835476733838
1555500,-128.283302681654
1556000,-128.64121508558
1556500,-129.527358202207
1557000,-129.240172792369
1557500,-129.251512914998
1558000,-128.86570904569
1558500,-129.25826776284
1559000,-129.732657475554
1559500,-129.006707782083
1560000,-128.960556836506
1560500,-128.446535846145
1561000,-128.505279605778
1561500,-129.07358146317
1562000,-128.548196235855
1562500,-128.240943070383
1563000,-128.974388207043
1563500,-129.646963594137
1564000,-128.890815413044
1564500,-128.864809644021
1565000,-128.617415969952
1565500,-128.038450326132
1566000,-129.160452427724
1566500,-128.115022723606
1567000,-128.448009228675
1567500,-128.917870433516
1568000,-129.075244119854
1568500,-129.402423137726
1569000,-128.920463086661
1569500,-128.407490391656
1570000,-128.877715246642
1570500,-128.564972005544
1571000,-128.3132474698
1571500,-128.784517703081
1572000,-128.783559601455
1572500,-129.234583887502
1573000,-128.201668314551
1573500,-128.312716984315
1574000,-126.730758815797
1574500,-125.665876701345
1575000,-127.258077607837
1575500,-127.892883258555
1576000,-127.219406413935
1576500,-127.562104937765
1577000,-124.201690081744
1577500,-120.806326971592
1578000,-119.660108221925
1578500,-121.899732990257
1579000,-125.176197434551
1579500,-126.812857372104
1580000,-127.739101862975
1580500,-127.981335842658
1581000,-128.299568659097
1581500,-129.134029723023
1582000,-129.034791158109
1582500,-127.585029518429
1583000,-128.11564479426
1583500,-128.984008716121
1584000,-129.519646821885
1584500,-128.688610776451
1585000,-128.698584143682
1585500,-128.683619843719
1586000,-129.1766383128
1586500,-128.876788266963
1587000,-128.194611374544
1587500,-128.735893281688
1588000,-128.519653575565
1588500,-128.27018470083
1589000,-129.089699251447
1589500,-129.252741838084
1590000,-128.866407543185
1590500,-128.087593228633
1591000,-128.978042965014
1591500,-128.891235065888
1592000,-129.144431918451
1592500,-128.607165749361
1593000,-129.091594600639
1593500,-128.873687791799
1594000,-129.063411437487
1594500,-129.20891431851
1595000,-129.614103192507
1595500,-128.905227958092
1596000,-128.816333266363
1596500,-129.373827799214
1597000,-128.581975507525
1597500,-128.321896915379
1598000,-129.195227285922
1598500,-128.756635788193
1599000,-129.044285411067
1599500,-128.649017672351
1600000,-128.091899762911
1600500,-127.549041045571
1601000,-127.267862014144
1601500,-127.929965711148
1602000,-128.851595956276
1602500,-129.375368794534
1603000,-129.981642297368
1603500,-128.93340907401
1604000,-129.646449805147
1604500,-129.18734470043
1605000,-129.011890070766
1605500,-128.76501990252
1606000,-129.3768654295
1606500,-129.14283767029
1607000,-129.351831477043
1607500,-128.879958552666
1608000,-128.746059846157
1608500,-128.492357060597
1609000,-129.865243446174
1609500,-129.208569012275
1610000,-129.561993595649
1610500,-129.103523928052
1611000,-130.150857396858
1611500,-130.246158622493
1612000,-129.304877103312
1612500,-128.752127816224
1613000,-130.05899981317
1613500,-129.789326759422
1614000,-129.864556454074
1614500,-129.44293240882
1615000,-129.399813109561
1615500,-129.380188251402
1616000,-129.27677017043
1616500,-129.068514978722
1617000,-129.498273586666
1617500,-129.095324406295
1618000,-129.571218554327
1618500,-129.407853113201
1619000,-129.077103817543
1619500,-129.217490561039
1620000,-128.994960056313
1620500,-129.009531538016
1621000,-128.923238227252
1621500,-129.243154051747
1622000,-129.41922292158
1622500,-129.281252485513
1623000,-129.156158409396
1623500,-128.962079605033
1624000,-129.461341343686
1624500,-129.317341416693
1625000,-128.788994222273
1625500,-129.347277473453
1626000,-129.040673950082
1626500,-128.773390177071
1627000,-129.874508230963
1627500,-129.896091806056
1628000,-128.962720088451
1628500,-129.337715377863
1629000,-128.830153795455
1629500,-129.049937613872
1630000,-129.251889734955
1630500,-128.711455834477
1631000,-128.889430824666
1631500,-128.23932043457
1632000,-127.835447219903
1632500,-127.311782821297
1633000,-126.239267474512
1633500,-124.1406237784
1634000,-121.011272098488
1634500,-121.408354465843
1635000,-122.842242376206
1635500,-125.723553738867
1636000,-126.982108158708
1636500,-127.976137942743
1637000,-127.900291360618
1637500,-128.373051044525
1638000,-128.45932426058
1638500,-128.732411332333
1639000,-129.975091423246
1639500,-129.247780316777
1640000,-129.233751361047
1640500,-129.420604036266
1641000,-129.184451733759
1641500,-129.376159810919
1642000,-129.051726704383
1642500,-128.165188878924
1643000,-129.065296359291
1643500,-128.9464533286
1644000,-128.934452719951
1644500,-129.541958752068
1645000,-129.723774153861
1645500,-129.519099643068
1646000,-129.859756172309
1646500,-129.561603377844
1647000,-129.08925545853
1647500,-129.621331318212
1648000,-128.864808795992
1648500,-128.392373584911
1649000,-128.973779286667
1649500,-129.027897860085
1650000,-129.805357726043
1650500,-129.480865435776
1651000,-129.469813714221
1651500,-129.027615657755
1652000,-128.812219583794
1652500,-129.507972454682
1653000,-128.980891353321
1653500,-129.375468203115
1654000,-129.174058628981
1654500,-129.306328301686
1655000,-129.250952800521
1655500,-127.451656691907
1656000,-127.152624088998
1656500,-126.951598502709
1657000,-128.294995907199
1657500,-129.232604218758
1658000,-129.240396174463
1658500,-128.889843291308
1659000,-129.699120391618
1659500,-128.934976148334
1660000,-129.56397342485
1660500,-129.078519917343
1661000,-129.007659045813
1661500,-130.145900278703
1662000,-129.220891011362
1662500,-129.299035703671
1663000,-129.249147205265
1663500,-129.621514266349
1664000,-129.3697233049
1664500,-129.594388599774
1665000,-129.660802299456
1665500,-129.672094150298
1666000,-129.476365275793
1666500,-128.746971317121
1667000,-130.354437394648
1667500,-129.163632523589
1668000,-130.063223882285
1668500,-130.348573308648
1669000,-129.697353770463
1669500,-128.956834585863
1670000,-129.457595194017
1670500,-130.311557716547
1671000,-129.603682143467
1671500,-129.364251557407
1672000,-129.586008915629
1672500,-129.483356357573
1673000,-129.306284231307
1673500,-129.718923079615
1674000,-129.63544921975
1674500,-129.479740894789
1675000,-129.690670618703
1675500,-129.216832266086
1676000,-130.290013713924
1676500,-129.146471365158
1677000,-129.928294924238
1677500,-129.830079500583
1678000,-129.907712660355
1678500,-129.8543980994
1679000,-130.153636659193
1679500,-129.988104567101
1680000,-130.152027910647
1680500,-129.767991338027
1681000,-129.554838651514
1681500,-129.627168005327
1682000,-130.015358300022
1682500,-130.746626766073
1683000,-130.215762634297
1683500,-129.258875114577
1684000,-129.207158089994
1684500,-129.384753787461
1685000,-129.491539084823
1685500,-129.909385650436
1686000,-129.639789878597
1686500,-128.449296081701
1687000,-129.150688064813
1687500,-129.033550487885
1688000,-128.29531997018
1688500,-128.154533570417
1689000,-128.054509703966
1689500,-126.811695820618
1690000,-123.707492813665
1690500,-121.022136532015
1691000,-122.925271565538
1691500,-125.012643096034
1692000,-127.230030794814
1692500,-128.774596559971
1693000,-128.722026995807
1693500,-128.09694520095
1694000,-128.350259354985
1694500,-128.064483498654
1695000,-129.002733534807
1695500,-129.038476214752
1696000,-128.607078721438
1696500,-128.691643578226
1697000,-128.605724680065
1697500,-128.942499768369
1698000,-129.151481669764
1698500,-129.773158836084
1699000,-129.061376747779
1699500,-128.738545107684
1700000,-129.519263258643
1700500,-129.69148761856
1701000,-129.66022488285
1701500,-129.769357461248
1702000,-130.540994991839
1702500,-129.245991362713
1703000,-129.725767137402
1703500,-129.185799833343
1704000,-129.997928481338
1704500,-129.339300980759
1705000,-130.260857511398
1705500,-129.756305729436
1706000,-129.597534393374
1706500,-129.373119471568
1707000,-129.747212784961
1707500,-129.618629557288
1708000,-129.588630903893
1708500,-129.61441895011
1709000,-129.777594668728
1709500,-129.969008869714
1710000,-129.081481772652
1710500,-129.306775756534
1711000,-129.067390478459
1711500,-127.970108127144
1712000,-128.67271021795
1712500,-129.075923414204
1713000,-129.273556301382
1713500,-129.293859495535
1714000,-129.954044394253
1714500,-129.982037221496
1715000,-129.862860480263
1715500,-129.608973925743
1716000,-129.440803070227
1716500,-129.775460161431
1717000,-129.371476721974
1717500,-129.708986602004
1718000,-129.945958589366
1718500,-129.110034179323
1719000,-129.458318848872
1719500,-130.423073208144
1720000,-129.191475683273
1720500,-129.231353270617
1721000,-129.912199765873
1721500,-130.223072371675
1722000,-129.851657948624
1722500,-129.982759921883
1723000,-130.340706175125
1723500,-129.928415965062
1724000,-130.757385745473
1724500,-130.660845605268
1725000,-130.425543427179
1725500,-129.627218301949
1726000,-129.677892555298
1726500,-130.771332671219
1727000,-129.942065135634
1727500,-129.591597040412
1728000,-129.836494271811
1728500,-129.952586186436
1729000,-130.29310513582
1729500,-130.793282800993
1730000,-130.033063473342
1730500,-130.837540098237
1731000,-130.950554268482
1731500,-130.500236919789
1732000,-130.299332574957
1732500,-130.417981743343
1733000,-129.770354306664
1733500,-129.94558976553
1734000,-129.831236201469
1734500,-130.12127970103
1735000,-129.817203858452
1735500,-129.562464024274
1736000,-129.641801150731
1736500,-130.179064175319
1737000,-129.582264190015
1737500,-129.182634187681
1738000,-130.102824782354
1738500,-129.916867976496
1739000,-129.929424426801
1739500,-130.136732089375
1740000,-129.742170989154
1740500,-129.809305937956
1741000,-129.356255598858
1741500,-129.300092558696
1742000,-130.177777282832
1742500,-129.177196466346
1743000,-130.074041179869
1743500,-129.31381132191
1744000,-129.756505634066
1744500,-129.257936097642
1745000,-129.414413215031
1745500,-128.653007290603
1746000,-127.556947611975
1746500,-125.143896979243
1747000,-125.138844590122
1747500,-125.485393477571
1748000,-126.742670601403
1748500,-128.197357023558
1749000,-128.268328436624
1749500,-128.6080413747
1750000,-128.899321576122
1750500,-129.216659107021
1751000,-129.298703782874
1751500,-128.755364232137
1752000,-130.128852208379
1752500,-129.014014607069
1753000,-129.478449851415
1753500,-129.304608082899
1754000,-129.880596591679
1754500,-129.78463919505
1755000,-129.464845120803
1755500,-129.515713665853
1756000,-129.34007238216
1756500,-129.789182409659
1757000,-130.197641835936
1757500,-130.77321497422
1758000,-130.379426246637
1758500,-129.786497687749
1759000,-130.510371492318
1759500,-129.801814292141
1760000,-130.009495125639
1760500,-129.745542889173
1761000,-130.331559538335
1761500,-129.959699362752
1762000,-129.971726771125
1762500,-130.053388053693
1763000,-129.368668525488
1763500,-129.788186510121
1764000,-129.129025159474
1764500,-129.568560749338
1765000,-129.249936874343
1765500,-130.204876162282
1766000,-130.222832177496
1766500,-129.112698174613
1767000,-129.092426558948
1767500,-129.489954729637
1768000,-129.353567721628
1768500,-129.981629809581
1769000,-129.426059786885
1769500,-130.474124491824
1770000,-131.200226435442
1770500,-129.613185024207
1771000,-129.798864226873
1771500,-130.559453358869
1772000,-130.136948424677
1772500,-130.451525921492
1773000,-129.912932030355
1773500,-130.332644948814
1774000,-130.232139651899
1774500,-130.087181260545
1775000,-129.606499535005
1775500,-130.089554140497
1776000,-130.008134411479
1776500,-130.187570688654
1777000,-129.934385894042
1777500,-130.300914218311
1778000,-130.742975464565
1778500,-130.629766022511
1779000,-130.422321037951
1779500,-130.728641009585
1780000,-130.14438627464
1780500,-130.58897113986
1781000,-130.050653963377
1781500,-130.473570379506
1782000,-130.446118402237
1782500,-130.023986687367
1783000,-129.987814689555
1783500,-130.801763009472
1784000,-130.40795265573
1784500,-130.513696407685
1785000,-129.830317005402
1785500,-130.534649930886
1786000,-129.780129643274
1786500,-129.926144217426
1787000,-130.636462660706
1787500,-130.26780861767
1788000,-130.234330839243
1788500,-130.370713247623
1789000,-130.35347111392
1789500,-130.274594941521
1790000,-130.461518659165
1790500,-130.483061975179
1791000,-130.460832947413
1791500,-130.149667958976
1792000,-129.152932632341
1792500,-129.17893863137
1793000,-129.403153992434
1793500,-130.352924427025
1794000,-130.36666803824
1794500,-129.214035586957
1795000,-130.554062710096
1795500,-130.72406247028
1796000,-129.990602790818
1796500,-131.115135120855
1797000,-130.51345155533
1797500,-129.665864280003
1798000,-130.023637872538
1798500,-130.56492004193
1799000,-129.795202536968
1799500,-130.090398300368
1800000,-130.479865118715
1800500,-130.593980725318
1801000,-129.527104936625
1801500,-130.166874081304
1802000,-129.251837130857
1802500,-128.140046426385
1803000,-125.602318907227
1803500,-126.265660438227
1804000,-127.811248352604
1804500,-128.510206508749
1805000,-128.781297187157
1805500,-129.162058514652
1806000,-129.127382852169
1806500,-129.842376988946
1807000,-129.256659876694
1807500,-129.842065559927
1808000,-129.662045778265
1808500,-130.124498639328
1809000,-129.877823073216
1809500,-129.341657493621
1810000,-129.526144670541
1810500,-130.375315370573
1811000,-129.54817580753
1811500,-130.075514842539
1812000,-130.59930370113
1812500,-130.239554505482
1813000,-130.042159001755
1813500,-129.900376825718
1814000,-131.131043747063
1814500,-130.000920476353
1815000,-130.864275669909
1815500,-129.888894844413
1816000,-130.88555450307
1816500,-130.151557557559
1817000,-130.058840146007
1817500,-130.400849643703
1818000,-130.681314174638
1818500,-130.462594101039
1819000,-130.346360181768
1819500,-129.974328217804
1820000,-130.049750838439
1820500,-130.270080543456
1821000,-130.163796390003
1821500,-129.822508237187
1822000,-129.543445138631
1822500,-129.392511339322
1823000,-130.634282755811
1823500,-129.810582632843
1824000,-130.194052633742
1824500,-130.846070970595
1825000,-130.659484395317
1825500,-129.776575225834
1826000,-130.979645956602
1826500,-131.137394100074
1827000,-130.370680001233
1827500,-130.856019467458
1828000,-130.228193404976
1828500,-130.161655498098
1829000,-130.935056703457
1829500,-129.810997890092
1830000,-130.163282600327
1830500,-130.942451370141
1831000,-130.064844474578
1831500,-130.103544207675
1832000,-130.688475869125
1832500,-130.302279250437
1833000,-129.333691534593
1833500,-130.123814398354
1834000,-129.86766506122
1834500,-129.703851610411
1835000,-131.131290731916
1835500,-130.360097494755
1836000,-130.140139210517
1836500,-130.180416906625
1837000,-130.150693681693
1837500,-131.020046747555
1838000,-130.104216710569
1838500,-130.722177670755
1839000,-130.683267228195
1839500,-130.562098927772
1840000,-129.88937099987
1840500,-130.237662853365
1841000,-130.150049454733
1841500,-129.722924434038
1842000,-129.376548294853
1842500,-130.272733272682
1843000,-130.335357146636
1843500,-130.718329586375
1844000,-129.813949145591
1844500,-130.120504017078
1845000,-130.27098542361
1845500,-130.845365201925
1846000,-130.482570732557
1846500,-129.605168343212
1847000,-130.031322942639
1847500,-129.591622459458
1848000,-130.059347474842
1848500,-130.213650557087
1849000,-129.830335142165
1849500,-130.687521867816
1850000,-130.127246296409
1850500,-130.827305236282
1851000,-129.537642665291
1851500,-130.72968040322
1852000,-130.421344143094
1852500,-130.849104941624
1853000,-130.365429253979
1853500,-129.904987965102
1854000,-130.282415107218
1854500,-130.392547430763
1855000,-130.375183524667
1855500,-129.413103425548
1856000,-130.437212647692
1856500,-129.728822904057
1857000,-129.751866802516
1857500,-129.511023045144
1858000,-129.608584809972
1858500,-129.231096394946
1859000,-127.599457002928
1859500,-127.168759629843
1860000,-126.670445395263
1860500,-127.17340225175
1861000,-128.4493252657
1861500,-129.182616518677
1862000,-129.39904499703
1862500,-129.898872012466
1863000,-129.910573055904
1863500,-129.806438618535
1864000,-129.873912798479
1864500,-130.668945196114
1865000,-130.197283893948
1865500,-129.661730677064
1866000,-129.944789029798
1866500,-130.789878888979
1867000,-129.883884802038
1867500,-129.560748938079
1868000,-130.657684081055
1868500,-129.324191621936
1869000,-129.87238451279
1869500,-129.713285745017
1870000,-131.092735664753
1870500,-130.495501165109
1871000,-129.96127171298
1871500,-130.393240399218
1872000,-129.823312648832
1872500,-129.678184513499
1873000,-128.692081945368
1873500,-130.171434958518
1874000,-130.291715147291
1874500,-129.716214706912
1875000,-130.010641958134
1875500,-130.375408770194
1876000,-130.089012843495
1876500,-130.008273025305
1877000,-129.440860536158
1877500,-129.734169878464
1878000,-130.578145863023
1878500,-129.705440638068
1879000,-129.69025171179
1879500,-130.065460588718
1880000,-129.314510864776
1880500,-130.351218227927
1881000,-129.891437875924
1881500,-129.814065803143
1882000,-131.005954932023
1882500,-129.270725803314
1883000,-130.002488552675
1883500,-130.133503076981
1884000,-130.190333355179
1884500,-130.729953354071
1885000,-130.009551509484
1885500,-130.819366891386
1886000,-130.240638714446
1886500,-130.096767452992
1887000,-130.363328106773
1887500,-130.208964794918
1888000,-130.559083714963
1888500,-129.753277225577
1889000,-129.961059087156
1889500,-129.432036580863
1890000,-130.397221860652
1890500,-130.27006522017
1891000,-130.298215241015
1891500,-129.355153209737
1892000,-129.174605502639
1892500,-130.4701427371
1893000,-129.983487684561
1893500,-130.708272200914
1894000,-129.830225875913
1894500,-129.90088571844
1895000,-130.27666177222
1895500,-129.739227988831
1896000,-130.311419366301
1896500,-130.318743442348
1897000,-130.584470172723
1897500,-131.09790026649
1898000,-130.102809552057
1898500,-130.513541571515
1899000,-130.303913960991
1899500,-130.358025749473
1900000,-129.921591996701
1900500,-130.412785588217
1901000,-130.642880124021
1901500,-130.675699446302
1902000,-130.342038874403
1902500,-129.388575494168
1903000,-130.3204794996
1903500,-129.6582125013
1904000,-131.29763236594
1904500,-129.501462387988
1905000,-130.256310946255
1905500,-130.814747591559
1906000,-130.267235569911
1906500,-130.20920598561
1907000,-130.018721664773
1907500,-129.657563645745
1908000,-129.866604254776
1908500,-129.05675258533
1909000,-130.068968456688
1909500,-130.01715213599
1910000,-129.985675237721
1910500,-130.074194632989
1911000,-129.74788873942
1911500,-130.499209324541
1912000,-129.649577721594
1912500,-130.112727356126
1913000,-129.847667621379
1913500,-129.752532017021
1914000,-129.586282223249
1914500,-129.168932752423
1915000,-128.894249708088
1915500,-128.149646317692
1916000,-126.503248154091
1916500,-127.469180487869
1917000,-127.935487308024
1917500,-128.827073433108
1918000,-128.80829643589
1918500,-129.860694862398
1919000,-129.329791104429
1919500,-129.140753017356
1920000,-129.265290248717
1920500,-129.9910951159
1921000,-130.251785015224
1921500,-130.038735464345
1922000,-130.291535302532
1922500,-130.369229662825
1923000,-129.062800822874
1923500,-129.725473071533
1924000,-129.325358552804
1924500,-129.282756503353
1925000,-129.526816802617
1925500,-130.39950512916
1926000,-129.910649472088
1926500,-130.002937668997
1927000,-129.586326873891
1927500,-129.700810057791
1928000,-130.00099095721
1928500,-130.137256829105
1929000,-129.991632485447
1929500,-130.373236915865
1930000,-129.929943845892
1930500,-130.109002656251
1931000,-128.879933656504
1931500,-130.880996602181
1932000,-129.534033299248
1932500,-129.444049617553
1933000,-129.998667735353
1933500,-130.089323301413
1934000,-129.589110662917
1934500,-129.916546882229
1935000,-129.595372683858
1935500,-130.071713340667
1936000,-130.04911159613
1936500,-130.230004807097
1937000,-129.296382157767
1937500,-129.079324373306
1938000,-129.266679829286
1938500,-129.796409675207
1939000,-129.737921214777
1939500,-129.206648793527
1940000,-129.558900229089
1940500,-129.45714918195
1941000,-130.281782444883
1941500,-129.855376064592
1942000,-130.627367469717
1942500,-129.632561471352
1943000,-129.345705566351
1943500,-130.362217375594
1944000,-129.233333796793
1944500,-130.143380545648
1945000,-129.521062830682
1945500,-129.507619723221
1946000,-129.30043201069
1946500,-129.021223180301
1947000,-129.704655316722
1947500,-129.569387394124
1948000,-129.956946394467
1948500,-129.994478528005
1949000,-130.468113079793
1949500,-129.445928515991
1950000,-130.405361427587
1950500,-129.92618754448
1951000,-130.317639244549
1951500,-129.511058284526
1952000,-129.488408709694
1952500,-129.481065082646
1953000,-130.30866859488
1953500,-130.996798719239
1954000,-129.736579894854
1954500,-129.123579294752
1955000,-129.722979290441
1955500,-129.480522380549
1956000,-130.215099401414
1956500,-130.421890226137
1957000,-130.181549122433
1957500,-129.384332788612
1958000,-130.816608975906
1958500,-130.148481329902
1959000,-130.026061768909
1959500,-129.834730064216
1960000,-130.002203281332
1960500,-130.152810037309
1961000,-129.336693853707
1961500,-130.364163089337
1962000,-129.891033179245
1962500,-129.461156067147
1963000,-129.42952327437
1963500,-129.068897274198
1964000,-129.820041515987
1964500,-130.125423484559
1965000,-128.93669219979
1965500,-129.421338650489
1966000,-128.680397364564
1966500,-128.689650017573
1967000,-128.606718702866
1967500,-128.491006461842
1968000,-129.100835771922
1968500,-128.870749923972
1969000,-128.162196794837
1969500,-129.313094403907
1970000,-127.978731609991
1970500,-127.874873530844
1971000,-127.863896840025
1971500,-126.999082390026
1972000,-125.74134449964
1972500,-125.158762113985
1973000,-126.860885956266
1973500,-127.912888106197
1974000,-128.138982977286
1974500,-127.777416616025
1975000,-129.380861522445
1975500,-128.375753280687
1976000,-129.063320784131
1976500,-129.576001436478
1977000,-129.780082515895
1977500,-128.704538545803
1978000,-129.357821116924
1978500,-129.918958601887
1979000,-128.976608164571
1979500,-129.676961429938
1980000,-129.041688213085
1980500,-128.688651073005
1981000,-129.274144380955
1981500,-129.603545566848
1982000,-129.162697455703
1982500,-128.483142746037
1983000,-128.629162592324
1983500,-128.427306628767
1984000,-130.134596851672
1984500,-130.06722683783
1985000,-128.993464258436
1985500,-129.200274177248
1986000,-130.392253348982
1986500,-129.035933827794
1987000,-129.104419260868
1987500,-129.338367119131
1988000,-129.533493408686
1988500,-129.65491016108
1989000,-129.789456684138
1989500,-129.904825923866
1990000,-129.134650416693
1990500,-128.949909925377
1991000,-129.069173278498
1991500,-128.453962349189
1992000,-129.561888767697
1992500,-129.403966400333
1993000,-129.56863199931
1993500,-129.322146888868
1994000,-128.258190830681
1994500,-128.610561593904
1995000,-128.973171759017
1995500,-129.653309273546
1996000,-128.997558040781
1996500,-128.678518644477
1997000,-129.10196446993
1997500,-128.216416526408
1998000,-128.863716234174
1998500,-129.606937501013
1999000,-129.020126134647
1999500,-129.626753818589
2000000,-128.868895086376
