Trace
Swept SA
A.12.15,N9000A
507 ,01
Segment,0
Number of Points,1001
Sweep Time,0.1682
Start Frequency,1500000
Stop Frequency,2000000
Average Count,0
Average Type,LogPower(Video)
RBW,30
RBW Filter,Gaussian
RBW Filter BW,3dB
VBW,30
Sweep Type,Fft
X Axis Scale,Lin
PreAmp State,Off
PreAmp Band,Low
Trigger Source,Free
Trigger Level,1.2
Trigger Slope,Positive
Trigger Delay,0
Phase Noise Optimization,Narrow
Swept If Gain,Low
FFT If Gain,Autorange
RF Coupling,AC
FFT Width,411900
Ext Ref,10000000
Input,RF
RF Calibrator,Off
Attenuation,0
Ref Level Offset,0
External Gain,0
Trace Type,Average
Detector,Sample
Trace Math,Off
Trace Math Oper1,Trace5
Trace Math Oper2,Trace6
Trace Math Offset,0
Trace Name,Trace1
X Axis Units,Hz
Y Axis Units,dBm
DATA
1500000,-127.406066466421
1500500,-127.13632321419
1501000,-128.185470971376
1501500,-128.43018059736
1502000,-127.851671820907
1502500,-127.197286513543
1503000,-128.056854258239
1503500,-127.163286839285
1504000,-128.175300785543
1504500,-127.73533084886
1505000,-127.827112201807
1505500,-128.500558986013
1506000,-128.377081609561
1506500,-129.448616690616
1507000,-128.3512936522
1507500,-128.017684115415
1508000,-128.64641417084
1508500,-128.485212510991
1509000,-128.044783557279
1509500,-127.39691546686
1510000,-129.201417768273
1510500,-128.587739298275
1511000,-127.80987429434
1511500,-127.917764358392
1512000,-128.149114302946
1512500,-128.120371218953
1513000,-127.801020979832
1513500,-127.315866281835
1514000,-127.857357893228
1514500,-126.769355193738
1515000,-128.038890682992
1515500,-124.946518774822
1516000,-124.318949566022
1516500,-125.928173094297
1517000,-127.766324080418
1517500,-126.61654520128
1518000,-127.144392163259
1518500,-127.235329726815
1519000,-127.980754766513
1519500,-127.084614804665
1520000,-127.761635448926
1520500,-125.17496940246
1521000,-123.465995580338
1521500,-118.466695181603
1522000,-118.813441165913
1522500,-122.05864887867
1523000,-124.897838421219
1523500,-126.062728697377
1524000,-127.367489505654
1524500,-127.222470093296
1525000,-128.034560969004
1525500,-127.733507300055
1526000,-127.344632746729
1526500,-127.860884005624
1527000,-128.245686825723
1527500,-128.658579759389
1528000,-127.634563110083
1528500,-128.449867588867
1529000,-128.588671877297
1529500,-128.537071635794
1530000,-128.373557435106
1530500,-127.109283560744
1531000,-128.812182653194
1531500,-128.6278189781
1532000,-127.948013378417
1532500,-127.002927408769
1533000,-126.983344732167
1533500,-126.837390408645
1534000,-127.784965191279
1534500,-128.578613243944
1535000,-127.937366894531
1535500,-128.539715161201
1536000,-128.16083262739
1536500,-128.494634964498
1537000,-128.300743644781
1537500,-128.121779785859
1538000,-128.287601212437
1538500,-128.446666082302
1539000,-128.115172385383
1539500,-128.895059229079
1540000,-128.7950365009
1540500,-128.559278246519
1541000,-127.757431459559
1541500,-127.044846149156
1542000,-126.952554459582
1542500,-128.388610498489
1543000,-127.241819700945
1543500,-127.233995241267
1544000,-128.693167157631
1544500,-127.383734543645
1545000,-127.383498888425
1545500,-125.883251294809
1546000,-123.982118115129
1546500,-124.881230801255
1547000,-127.119628642803
1547500,-127.214456658431
1548000,-127.157888469463
1548500,-128.578218672603
1549000,-127.855557519382
1549500,-128.532852101275
1550000,-128.051798650938
1550500,-127.775253191717
1551000,-129.142613596973
1551500,-128.670824614366
1552000,-128.365549499842
1552500,-129.357633209096
1553000,-128.880420891135
1553500,-128.584744335733
1554000,-129.379180510297
1554500,-129.613962199423
1555000,-128.367356482684
1555500,-129.97272684513
1556000,-128.12243204688
1556500,-128.802265311402
1557000,-129.563228880711
1557500,-129.563402542897
1558000,-128.750061899109
1558500,-128.727657787219
1559000,-128.561298120285
1559500,-128.535840529872
1560000,-128.994743602801
1560500,-128.821329132697
1561000,-128.241392084069
1561500,-129.030731402166
1562000,-129.169541075422
1562500,-129.308995781546
1563000,-129.164697233604
1563500,-129.317483620092
1564000,-128.971913694051
1564500,-128.403331879325
1565000,-128.141116270009
1565500,-129.495512960711
1566000,-128.740238288533
1566500,-129.493941495924
1567000,-128.389441043435
1567500,-129.118068173057
1568000,-129.586537900668
1568500,-128.105563737681
1569000,-129.261185215046
1569500,-128.632198422849
1570000,-128.026306722355
1570500,-128.302203071395
1571000,-128.482674180519
1571500,-129.54403441816
1572000,-128.917764692284
1572500,-128.516744339822
1573000,-129.0134222242
1573500,-127.376865529579
1574000,-125.701065030997
1574500,-126.876249394794
1575000,-127.530854767638
1575500,-127.58309822579
1576000,-128.158937740834
1576500,-127.507712323588
1577000,-125.390514545244
1577500,-123.369590459839
1578000,-119.999845037184
1578500,-121.505578370131
1579000,-123.45553228948
1579500,-125.950138895051
1580000,-127.332395730785
1580500,-127.430399180482
1581000,-128.208598282523
1581500,-128.485553143532
1582000,-128.923283371293
1582500,-128.552052880878
1583000,-129.843393884453
1583500,-128.041797740691
1584000,-128.92538333858
1584500,-128.209744120027
1585000,-128.894820138512
1585500,-128.524227145728
1586000,-128.910981872892
1586500,-127.722152055551
1587000,-129.071481859119
1587500,-128.504610363802
1588000,-128.092637797507
1588500,-128.557278397724
1589000,-129.766850941434
1589500,-128.486610860811
1590000,-129.238206133711
1590500,-129.133790248704
1591000,-130.156262161524
1591500,-128.999959350375
1592000,-129.852186493271
1592500,-128.166284130729
1593000,-128.424906038331
1593500,-128.865436667095
1594000,-128.987216216986
1594500,-128.653440829041
1595000,-128.596262202033
1595500,-128.571558362359
1596000,-129.778379856663
1596500,-128.336705758574
1597000,-128.896544140526
1597500,-128.987620871029
1598000,-128.272399366632
1598500,-128.543531933982
1599000,-129.123239269571
1599500,-128.585303912769
1600000,-129.203317022798
1600500,-127.821514545654
1601000,-127.051754249218
1601500,-126.127079000865
1602000,-127.092437566185
1602500,-129.61267872933
1603000,-128.708622045302
1603500,-128.482474200622
1604000,-129.306722767541
1604500,-128.351070379189
1605000,-128.523510402551
1605500,-128.750833482385
1606000,-128.681715051064
1606500,-129.530047007999
1607000,-129.853442002263
1607500,-129.117192354342
1608000,-128.832110293948
1608500,-129.120771336827
1609000,-129.642875658444
1609500,-129.925060086053
1610000,-129.234849989344
1610500,-128.965239382425
1611000,-129.649180601302
1611500,-129.954588990781
1612000,-128.807786806668
1612500,-128.907358790023
1613000,-129.57163772118
1613500,-128.12603859937
1614000,-129.760594208131
1614500,-129.735568808171
1615000,-128.982545281564
1615500,-129.093379178463
1616000,-129.134622799683
1616500,-128.543772410345
1617000,-128.846545936172
1617500,-129.33821643582
1618000,-129.484481060396
1618500,-129.531323688053
1619000,-129.764984245956
1619500,-128.839903893271
1620000,-129.658413632991
1620500,-129.276800148939
1621000,-128.886732846077
1621500,-129.740882267431
1622000,-128.962212116674
1622500,-128.977369996609
1623000,-129.443066106758
1623500,-128.772697354592
1624000,-129.750294597152
1624500,-129.549996888206
1625000,-129.358391105796
1625500,-128.691148993427
1626000,-128.633015259376
1626500,-129.235904157529
1627000,-128.97373620196
1627500,-129.173481127264
1628000,-129.461991318699
1628500,-129.071455105359
1629000,-129.560362139946
1629500,-129.508140986685
1630000,-128.910060800705
1630500,-129.32899896494
1631000,-129.164325808992
1631500,-128.788317568873
1632000,-127.913566231894
1632500,-127.09691457784
1633000,-126.371175236397
1633500,-125.684852284525
1634000,-122.917343865588
1634500,-120.625561217347
1635000,-121.52308636519
1635500,-123.813591210665
1636000,-126.784302543248
1636500,-127.508589002838
1637000,-128.992351955203
1637500,-127.988343720417
1638000,-129.743302289637
1638500,-128.347691166397
1639000,-128.402058221416
1639500,-129.096907836695
1640000,-129.234103007394
1640500,-129.092404441925
1641000,-128.92423729797
1641500,-128.9618046165
1642000,-128.822877015381
1642500,-129.372268633837
1643000,-128.524995116648
1643500,-129.559076521243
1644000,-128.970950955618
1644500,-129.599693082034
1645000,-129.073186432958
1645500,-128.164531926213
1646000,-129.030800711159
1646500,-129.090904086442
1647000,-128.800006315337
1647500,-129.099101564875
1648000,-129.356951946929
1648500,-128.241687534641
1649000,-128.606577206404
1649500,-129.759639764202
1650000,-129.545130391419
1650500,-129.523831077632
1651000,-129.773152169464
1651500,-129.294127097979
1652000,-129.286726671485
1652500,-128.064332836679
1653000,-130.131860453543
1653500,-129.128456594579
1654000,-128.723989493918
1654500,-129.156659809728
1655000,-128.774361723797
1655500,-128.602164819495
1656000,-128.212780178528
1656500,-126.696541638511
1657000,-126.914525410727
1657500,-128.692227797334
1658000,-129.55601783465
1658500,-130.063766017617
1659000,-128.878662480035
1659500,-129.196286949914
1660000,-128.999322111784
1660500,-129.174617122265
1661000,-128.693083957908
1661500,-129.334211858061
1662000,-129.133404025478
1662500,-129.88492065635
1663000,-129.41008651879
1663500,-129.358445158445
1664000,-130.371219490992
1664500,-129.851682264853
1665000,-129.17457441075
1665500,-129.581831179961
1666000,-129.409554981247
1666500,-129.779989750091
1667000,-129.626565243414
1667500,-128.682365199943
1668000,-130.400323100361
1668500,-129.407504006441
1669000,-129.83635540672
1669500,-129.142771789175
1670000,-130.397903981025
1670500,-129.892686224858
1671000,-128.867781059316
1671500,-129.596518141364
1672000,-129.784571188572
1672500,-129.229838655308
1673000,-129.867675060056
1673500,-130.039945968767
1674000,-129.310767329232
1674500,-129.03543331906
1675000,-129.634571545326
1675500,-129.446337327053
1676000,-129.869108571237
1676500,-130.056058948604
1677000,-129.077911758725
1677500,-129.580800280763
1678000,-129.186598195325
1678500,-128.804915703858
1679000,-129.943649244
1679500,-129.971694300107
1680000,-129.514967657017
1680500,-130.03785507833
1681000,-129.912450026341
1681500,-129.494208017999
1682000,-129.156380466117
1682500,-128.747490229599
1683000,-129.215847741515
1683500,-129.634698755927
1684000,-130.089964742762
1684500,-128.766784666443
1685000,-130.159835812404
1685500,-128.82839916293
1686000,-129.086617483343
1686500,-129.008989987207
1687000,-128.840694437603
1687500,-128.305148123998
1688000,-128.889705554277
1688500,-129.136234032031
1689000,-128.713933711545
1689500,-127.582176442067
1690000,-125.97966748272
1690500,-122.261991133953
1691000,-121.942097643916
1691500,-124.639979419488
1692000,-126.947888257603
1692500,-126.889125305072
1693000,-128.050392942926
1693500,-128.634832026286
1694000,-128.81422860536
1694500,-128.973558669684
1695000,-128.968865837373
1695500,-128.173966257782
1696000,-129.69628160864
1696500,-129.203731299123
1697000,-128.827711630332
1697500,-128.197073659133
1698000,-128.498981191276
1698500,-130.247852645733
1699000,-129.863606928973
1699500,-129.809565855483
1700000,-129.755633080908
1700500,-129.213606375898
1701000,-128.428985523516
1701500,-129.247156900408
1702000,-129.185053692407
1702500,-130.079393192105
1703000,-128.606620901548
1703500,-129.517762340059
1704000,-129.75544040068
1704500,-130.243861572847
1705000,-130.523942998352
1705500,-129.050511675639
1706000,-129.815964782751
1706500,-129.705715484258
1707000,-129.891541458973
1707500,-128.862183207382
1708000,-129.105106330824
1708500,-128.573976647466
1709000,-130.488108583918
1709500,-129.375424341684
1710000,-129.795569694586
1710500,-128.885885486829
1711000,-129.21628262161
1711500,-128.435911885948
1712000,-128.292362056399
1712500,-128.84054450077
1713000,-128.270095362723
1713500,-130.158027405675
1714000,-129.590912906086
1714500,-129.489279806408
1715000,-129.010430624775
1715500,-130.017557208181
1716000,-130.582273933584
1716500,-130.150755904024
1717000,-130.114740208691
1717500,-129.698096362155
1718000,-129.488773597162
1718500,-129.736177134628
1719000,-130.292836035728
1719500,-129.119449588233
1720000,-130.181916800231
1720500,-129.113433107626
1721000,-130.787428849057
1721500,-129.791618397325
1722000,-130.355091342327
1722500,-130.169468759052
1723000,-129.893043183962
1723500,-129.311817227519
1724000,-130.638318760668
1724500,-130.28397499274
1725000,-129.305328973792
1725500,-130.29852281151
1726000,-129.857798083948
1726500,-130.129547179361
1727000,-130.523278437744
1727500,-129.778889609638
1728000,-129.731774249392
1728500,-130.063407057454
1729000,-130.10493111718
1729500,-130.694117152412
1730000,-129.960104999228
1730500,-129.509378570088
1731000,-129.178071668456
1731500,-129.71446669016
1732000,-130.187461247142
1732500,-130.027158783376
1733000,-130.809801177888
1733500,-130.089569526889
1734000,-130.770514267974
1734500,-129.8762917273
1735000,-129.118311118853
1735500,-130.343848342983
1736000,-128.965125535352
1736500,-129.498152516858
1737000,-129.744371072313
1737500,-129.381271269175
1738000,-129.758528068673
1738500,-129.755487368106
1739000,-130.546074400846
1739500,-129.765120710047
1740000,-129.926681550286
1740500,-130.253306561625
1741000,-130.400061253292
1741500,-128.851669311322
1742000,-129.458458447483
1742500,-129.504424190836
1743000,-129.7328338049
1743500,-129.2195939043
1744000,-128.817795200924
1744500,-129.001229417333
1745000,-129.637027781193
1745500,-128.026086108133
1746000,-128.661715046848
1746500,-125.749967396891
1747000,-125.70066317983
1747500,-124.716753381985
1748000,-125.146260234417
1748500,-127.958149385217
1749000,-126.8664551512
1749500,-128.386246611571
1750000,-128.899510216426
1750500,-128.700601209141
1751000,-129.220556072875
1751500,-129.728348242948
1752000,-129.669835640596
1752500,-130.099117356217
1753000,-129.981410509479
1753500,-129.631753977232
1754000,-128.915126428255
1754500,-130.263069464856
1755000,-129.665823904865
1755500,-128.550966963198
1756000,-130.486528563513
1756500,-129.565142228457
1757000,-129.769521432362
1757500,-129.757110916542
1758000,-129.699258055528
1758500,-130.720454721574
1759000,-129.654984266393
1759500,-130.57235077389
1760000,-129.738827670809
1760500,-130.080997559286
1761000,-129.711210846867
1761500,-130.284024424336
1762000,-130.270002232757
1762500,-129.64192033656
1763000,-129.776556390556
1763500,-128.466804484274
1764000,-129.438806971979
1764500,-130.070560493519
1765000,-129.961160069781
1765500,-129.043669594767
1766000,-129.261231278183
1766500,-129.203644767654
1767000,-128.714863844541
1767500,-129.04175032085
1768000,-129.530655515778
1768500,-129.932873910143
1769000,-130.126144650386
1769500,-130.166088647273
1770000,-130.043369745271
1770500,-129.830687572573
1771000,-130.110538287261
1771500,-129.61128102273
1772000,-129.176572411726
1772500,-130.352030257638
1773000,-130.103751964559
1773500,-129.583781807544
1774000,-131.17803747853
1774500,-130.142171389222
1775000,-129.287626513953
1775500,-130.293226983039
1776000,-129.846724097494
1776500,-130.651575847934
1777000,-129.448287672758
1777500,-129.682395403665
1778000,-129.914769527603
1778500,-130.478336315196
1779000,-130.456573521014
1779500,-129.428302978006
1780000,-129.945056293421
1780500,-130.282197207078
1781000,-130.199126172662
1781500,-131.028771138304
1782000,-129.949518523201
1782500,-129.303933864523
1783000,-129.079009418638
1783500,-130.687661623196
1784000,-129.995329339898
1784500,-129.774314730761
1785000,-130.189949074413
1785500,-129.742818848965
1786000,-130.819257604069
1786500,-130.743494886876
1787000,-128.952418118886
1787500,-130.023541711358
1788000,-130.441530537807
1788500,-131.019713826678
1789000,-130.714210783235
1789500,-129.94813943421
1790000,-129.232868154196
1790500,-130.929195055144
1791000,-131.026754581131
1791500,-130.171414798322
1792000,-129.55467009803
1792500,-129.121397515186
1793000,-129.787546527963
1793500,-130.416776776286
1794000,-130.586954349622
1794500,-129.853809862568
1795000,-130.406396507666
1795500,-130.634494568151
1796000,-130.579420754579
1796500,-129.543340614988
1797000,-130.042039884886
1797500,-129.500749789241
1798000,-130.547360102723
1798500,-129.75559114896
1799000,-129.777424320651
1799500,-129.109702159761
1800000,-129.682530129896
1800500,-129.595856129932
1801000,-130.534113671789
1801500,-128.827480402096
1802000,-129.172109152552
1802500,-128.410747515398
1803000,-127.317975525709
1803500,-126.37353900698
1804000,-126.76991925691
1804500,-128.468032810883
1805000,-129.282503152353
1805500,-128.6876051716
1806000,-129.536494115783
1806500,-129.108013049546
1807000,-130.072302892211
1807500,-128.645250597684
1808000,-129.199533247785
1808500,-130.353029604503
1809000,-130.99923448011
1809500,-131.681613830282
1810000,-130.159815351936
1810500,-129.653529717909
1811000,-131.060281135865
1811500,-129.951231077801
1812000,-129.891790813351
1812500,-130.324823730082
1813000,-130.188889840517
1813500,-129.902302064832
1814000,-130.113089534183
1814500,-130.603476666972
1815000,-130.658131693257
1815500,-130.663917382735
1816000,-130.179066281118
1816500,-130.352983741472
1817000,-129.988820472449
1817500,-129.776791923945
1818000,-129.542172215129
1818500,-129.367593355132
1819000,-129.821838253215
1819500,-131.159871889261
1820000,-130.57499964433
1820500,-130.363452455732
1821000,-130.179468681154
1821500,-129.388849966555
1822000,-130.380654762448
1822500,-129.907778440159
1823000,-131.300436523243
1823500,-130.928171945164
1824000,-129.6691797309
1824500,-129.741618335208
1825000,-129.756174117493
1825500,-129.764524702167
1826000,-129.6624970418
1826500,-129.948009179291
1827000,-130.133004779291
1827500,-130.586583751323
1828000,-130.592138599125
1828500,-130.427663006748
1829000,-130.318258363899
1829500,-129.713868355491
1830000,-130.032906785756
1830500,-130.505836700292
1831000,-129.704946747707
1831500,-130.087589072295
1832000,-130.033298642364
1832500,-130.442475770198
1833000,-130.339171866643
1833500,-130.692968073088
1834000,-130.112405657322
1834500,-130.994123753914
1835000,-130.764354065235
1835500,-130.664297814653
1836000,-131.216577349055
1836500,-130.573048965321
1837000,-130.608135375845
1837500,-130.233519573396
1838000,-129.346349499482
1838500,-130.357636790201
1839000,-130.592503699386
1839500,-130.719408307396
1840000,-129.517378669912
1840500,-129.879852824014
1841000,-130.5220972519
1841500,-130.284263246186
1842000,-128.418561528111
1842500,-130.351450366125
1843000,-130.475187016953
1843500,-130.800960991412
1844000,-130.627767192588
1844500,-130.683440695781
1845000,-130.182056318422
1845500,-129.57470307386
1846000,-130.362286132644
1846500,-131.430559262994
1847000,-131.200998300102
1847500,-130.218797359532
1848000,-129.785127366012
1848500,-131.504684665102
1849000,-130.577171494916
1849500,-130.330532541067
1850000,-129.996943483902
1850500,-130.133818099001
1851000,-130.55345330682
1851500,-131.074696220958
1852000,-130.876929970539
1852500,-129.8642649988
1853000,-130.485615356051
1853500,-130.453863580306
1854000,-129.999977067079
1854500,-129.906872545342
1855000,-130.064032294732
1855500,-130.16487521505
1856000,-130.826412496128
1856500,-130.227743541423
1857000,-130.293097608014
1857500,-130.58847965834
1858000,-129.425244723129
1858500,-128.982362744066
1859000,-128.573628665669
1859500,-127.228178013178
1860000,-126.808671002714
1860500,-127.848910198392
1861000,-128.518026315829
1861500,-129.561105398008
1862000,-129.149150593406
1862500,-129.06282628179
1863000,-129.567451556858
1863500,-130.361223769769
1864000,-130.182788727842
1864500,-130.020541176249
1865000,-129.720476204577
1865500,-129.956313144237
1866000,-130.006297582775
1866500,-130.168595183446
1867000,-130.463565864904
1867500,-130.77990024034
1868000,-130.143600944237
1868500,-129.773660119515
1869000,-129.764353826039
1869500,-129.596347200946
1870000,-130.233196525616
1870500,-129.738356288771
1871000,-130.030767828419
1871500,-129.909644036872
1872000,-129.769044142953
1872500,-128.721630075483
1873000,-130.788166436126
1873500,-130.884071532485
1874000,-130.466458487465
1874500,-130.193232308566
1875000,-129.67505987645
1875500,-129.772784340986
1876000,-130.267718599856
1876500,-129.622473716892
1877000,-130.131298969431
1877500,-130.017362989336
1878000,-130.000438254507
1878500,-129.524489648003
1879000,-130.153106651514
1879500,-129.359769496257
1880000,-129.781005850985
1880500,-130.746617019224
1881000,-130.627866767861
1881500,-130.186926827704
1882000,-130.312168398167
1882500,-129.875420748291
1883000,-130.325669057184
1883500,-130.919809305572
1884000,-130.251007613897
1884500,-130.139260442808
1885000,-130.541243978144
1885500,-129.956844885758
1886000,-130.608394051814
1886500,-129.452360420769
1887000,-129.919492296743
1887500,-130.751062137244
1888000,-130.346958794949
1888500,-129.843709197344
1889000,-130.405712226358
1889500,-130.75789397696
1890000,-131.287256052927
1890500,-129.276280222768
1891000,-130.269814720637
1891500,-129.637470531689
1892000,-129.095531089856
1892500,-130.581508035041
1893000,-130.545407765745
1893500,-130.563284090545
1894000,-130.017178666363
1894500,-130.371251416168
1895000,-130.760302341275
1895500,-131.25239423529
1896000,-130.928981306339
1896500,-129.72293862566
1897000,-130.722037198376
1897500,-131.116466194155
1898000,-129.953345150646
1898500,-130.506781019031
1899000,-129.910882818852
1899500,-129.928274036122
1900000,-130.830761328183
1900500,-130.572497465221
1901000,-129.791162502094
1901500,-131.313593397139
1902000,-130.040309650556
1902500,-130.685825614305
1903000,-130.448807282153
1903500,-130.927149680412
1904000,-129.978658797057
1904500,-130.123803386085
1905000,-130.190209525332
1905500,-130.1876980574
1906000,-129.496831191599
1906500,-130.049307230968
1907000,-131.164598751794
1907500,-130.06394866257
1908000,-130.116895071645
1908500,-129.150800520943
1909000,-129.291766584225
1909500,-130.065630585777
1910000,-128.978466088806
1910500,-128.995659121841
1911000,-130.691824614739
1911500,-129.373695745889
1912000,-128.825249450231
1912500,-129.733397206502
1913000,-129.839292060775
1913500,-129.681899025371
1914000,-130.035234204506
1914500,-129.42930377349
1915000,-128.817666104733
1915500,-128.637268426984
1916000,-126.286002374512
1916500,-127.298499244914
1917000,-127.349979881072
1917500,-128.979880131972
1918000,-128.481512679073
1918500,-129.236922628146
1919000,-129.868023250273
1919500,-129.095326571991
1920000,-128.661932209544
1920500,-129.868274175982
1921000,-128.596655377153
1921500,-129.564751137547
1922000,-129.457972232398
1922500,-130.102133481379
1923000,-128.935596600435
1923500,-130.12064247054
1924000,-129.387510077632
1924500,-128.942772135509
1925000,-129.445119082029
1925500,-129.904894510175
1926000,-129.486831728435
1926500,-129.168031271997
1927000,-129.353091158201
1927500,-129.673624700795
1928000,-129.738875172995
1928500,-129.617115532585
1929000,-130.025348214584
1929500,-129.148341864666
1930000,-127.999360902309
1930500,-129.99012230266
1931000,-129.840536129473
1931500,-129.269136677965
1932000,-129.378011500976
1932500,-129.15041166725
1933000,-129.94403325944
1933500,-129.717451245348
1934000,-129.52140036466
1934500,-130.953209931256
1935000,-130.138059342358
1935500,-130.33466825955
1936000,-129.638387549568
1936500,-130.969856784739
1937000,-129.591955842066
1937500,-129.168468301656
1938000,-129.353276176759
1938500,-130.125562131618
1939000,-129.555316383859
1939500,-129.067139722558
1940000,-130.027763786582
1940500,-129.493406048416
1941000,-128.325378238902
1941500,-129.157852037853
1942000,-130.104600289049
1942500,-130.18430414784
1943000,-130.632169965089
1943500,-129.589476623093
1944000,-130.177334103793
1944500,-128.846083098402
1945000,-130.758344117126
1945500,-130.175607202381
1946000,-129.2897505931
1946500,-129.389878882908
1947000,-129.837036914798
1947500,-129.563568526255
1948000,-130.288340255883
1948500,-130.558962639591
1949000,-130.461743726531
1949500,-130.104326748745
1950000,-130.60263581879
1950500,-129.469139437913
1951000,-129.383814660707
1951500,-128.706817403907
1952000,-131.064613423937
1952500,-130.93278064265
1953000,-129.261591551623
1953500,-130.270452704293
1954000,-130.255011717127
1954500,-130.467587135431
1955000,-129.632416347262
1955500,-129.116543479358
1956000,-129.156069734987
1956500,-130.536749973078
1957000,-130.037684737656
1957500,-129.394909614809
1958000,-130.130673573089
1958500,-129.895170619909
1959000,-128.551861551473
1959500,-130.56364233126
1960000,-129.447220623315
1960500,-130.668226632038
1961000,-129.747026782143
1961500,-129.587864060395
1962000,-128.392562464919
1962500,-129.544482152451
1963000,-128.847121435459
1963500,-129.460942507396
1964000,-128.955542955344
1964500,-129.526863661255
1965000,-130.384039961849
1965500,-128.377917646848
1966000,-128.349387116986
1966500,-129.444992425421
1967000,-127.84971521843
1967500,-129.377139180195
1968000,-128.626071215492
1968500,-129.084698796457
1969000,-128.780195597085
1969500,-128.136581490963
1970000,-128.524072101086
1970500,-128.523564391844
1971000,-128.878766196346
1971500,-127.64399407344
1972000,-126.002225815072
1972500,-124.741640737278
1973000,-125.480207025968
1973500,-127.488536232288
1974000,-128.77919828175
1974500,-128.225863324788
1975000,-129.964982493753
1975500,-129.80686479376
1976000,-128.306857367194
1976500,-128.184336671636
1977000,-128.637856630153
1977500,-128.750653882995
1978000,-129.076415136571
1978500,-128.741601614685
1979000,-129.262415127115
1979500,-128.7497267001
1980000,-129.521455450697
1980500,-129.488002089511
1981000,-129.895449645677
1981500,-129.383761314608
1982000,-129.186593797833
1982500,-128.148505769016
1983000,-128.697927618402
1983500,-129.436656834894
1984000,-128.795676580618
1984500,-128.302564325226
1985000,-128.146648748906
1985500,-128.802080126983
1986000,-129.112586660401
1986500,-129.314602782684
1987000,-130.285683852811
1987500,-128.908545557728
1988000,-129.731757191486
1988500,-131.095762153458
1989000,-128.825757645957
1989500,-129.569549711761
1990000,-128.995216592613
1990500,-129.587962546933
1991000,-128.596722302052
1991500,-128.769183675036
1992000,-129.273927074673
1992500,-129.405378719257
1993000,-129.101991054707
1993500,-128.499101470357
1994000,-129.49759892873
1994500,-129.378496476558
1995000,-128.526255109809
1995500,-128.87646179239
1996000,-129.219301000132
1996500,-128.633054670029
1997000,-129.581316162861
1997500,-128.521886110422
1998000,-128.87191413352
1998500,-128.691070409759
1999000,-129.320253230609
1999500,-129.366979553895
2000000,-129.145830740902
